Imatest,3.7, Image Sensor Colorcheck
File,A-Cap.jpg
Run date,16-Apr-2018 17:10:28

Zone,Gray,Pixel,Pixel/255,Px/255 ideal,Log(exp),Log(px/255),WB Err Deg,WB Err Mired,WB ERR S(HSV)
19, 1,  222.4, 0.8723, 0.9490, -0.050, -0.059,  -880,  24.1, 0.104
20, 2,  201.6, 0.7905, 0.7882, -0.230, -0.102,  -964,  26.8, 0.114
21, 3,  170.2, 0.6675, 0.6314, -0.440, -0.176, -1338,  39.9, 0.163
22, 4,  114.8, 0.4502, 0.4784, -0.700, -0.347, -1929,  64.9, 0.254
23, 5,   57.6, 0.2260, 0.3255, -1.050, -0.646, -2635, 104.9, 0.379
24, 6,    9.0, 0.0353, 0.1922, -1.500, -1.452, -3273, 156.0, 0.592

Noise columns C-F are % normalized to White - Black (1.45 density range = 213.4 pxls).  Columns M-P are % normalized to max pixel level.
A-noise and A-fstop (cols K-L) are mean of RBGY channels.
Zone,Gray,Y-noise%,R-noise%,G-noise%,B-noise%,Y-fstopN,R-fstopN,G-fstopN,B-fstop,A-noise,A-fstop,Y-noise%,R-noise%,G-noise%,B-noise%
 1,,  1.308,  1.408,  1.435,  1.567,,,,,  1.430
 2,,  0.738,  0.796,  0.865,  1.035,,,,,  0.858
 3,,  1.003,  1.076,  1.047,  1.064,,,,,  1.048
 4,,  1.065,  1.128,  1.109,  1.200,,,,,  1.126
 5,,  0.873,  1.010,  0.946,  0.926,,,,,  0.939
 6,,  0.815,  0.867,  0.815,  0.851,,,,,  0.837
 7,,  1.369,  1.405,  1.377,  1.873,,,,,  1.506
 8,,  1.038,  1.236,  1.080,  1.107,,,,,  1.115
 9,,  1.625,  1.632,  1.637,  1.648,,,,,  1.636
10,,  1.264,  1.331,  1.274,  1.313,,,,,  1.296
11,,  1.064,  1.097,  1.099,  1.690,,,,,  1.238
12,,  0.829,  0.856,  0.887,  0.908,,,,,  0.870
13,,  1.045,  1.057,  1.057,  1.205,,,,,  1.091
14,,  1.186,  1.220,  1.236,  1.348,,,,,  1.248
15,,  1.779,  1.785,  1.801,  1.843,,,,,  1.802
16,,  0.771,  0.779,  0.764,  1.116,,,,,  0.857
17,,  1.487,  1.518,  1.572,  1.538,,,,,  1.529
18,,  1.038,  1.073,  1.092,  1.160,,,,,  1.091
19, 1,  0.408,  0.426,  0.416,  0.415,  0.190,  0.199,  0.194,  0.194,  0.416,  0.194,  0.341,  0.357,  0.348,  0.348
20, 2,  0.559,  0.620,  0.567,  0.605,  0.032,  0.035,  0.032,  0.034,  0.588,  0.033,  0.468,  0.519,  0.475,  0.507
21, 3,  0.844,  0.844,  0.844,  0.845,  0.036,  0.036,  0.036,  0.036,  0.844,  0.036,  0.706,  0.706,  0.706,  0.707
22, 4,  1.026,  1.028,  1.028,  1.053,  0.047,  0.047,  0.047,  0.048,  1.034,  0.047,  0.859,  0.861,  0.860,  0.881
23, 5,  1.086,  1.097,  1.090,  1.146,  0.062,  0.062,  0.062,  0.065,  1.105,  0.063,  0.909,  0.918,  0.913,  0.959
24, 6,  0.689,  0.683,  0.719,  0.754,  0.102,  0.101,  0.107,  0.112,  0.711,  0.106,  0.577,  0.571,  0.602,  0.631

S/N (signal/noise) and SNR(dB) (20*log10(signal/noise)) for the 6 gray patches.  A is Average of RBGY channels.
Zone,Gray,Y-S/N,R-S/N,G-S/N,B-S/N,Y-SNR(dB),R-SNR(dB),G-SNR(dB),B-SNR(dB),A-S/N,A-SNR(dB)
19, 1,255.710,255.525,247.654,234.896, 48.155, 48.149, 47.877, 47.418,248.446, 47.900
20, 2,168.864,160.794,163.841,146.054, 44.551, 44.125, 44.288, 43.290,159.888, 44.064
21, 3, 94.526,102.254, 92.251, 85.468, 39.511, 40.194, 39.299, 38.636, 93.625, 39.410
22, 4, 52.411, 59.076, 50.424, 43.082, 34.388, 35.428, 34.053, 32.686, 51.248, 34.139
23, 5, 24.878, 30.232, 22.996, 17.966, 27.916, 29.609, 27.233, 25.089, 24.018, 27.462
24, 6,  6.122, 10.314,  4.221,  3.818, 15.738, 20.268, 12.509, 11.637,  6.119, 15.038

SNR_BW (dB; RGBY), 39.8, 39.8, 39.6, 39.8,White-Black SNR (W-B density difference = 1.45), 20*log10((W-B)/(mid level (Zone 4) noise))

Zone,R-meas,G-meas,B-meas,R-ideal,G-ideal,B-ideal, L-meas,a*-meas,b*-meas,L-ideal,a*-ideal,b*-ideal, x-meas,y-meas,Y-meas, x-ideal,y-ideal,Y-ideal,Zone
 1,  0.589,  0.297,  0.184,   0.447,  0.317,  0.265,   40.92,  28.79,  30.90,   37.54,  12.02,  13.33,  0.4955, 0.3737, 0.1181,  0.3969, 0.3586, 0.0983,  1
 2,  0.931,  0.677,  0.587,   0.764,  0.580,  0.501,   76.06,  20.83,  21.06,   65.20,  14.82,  17.55,  0.3932, 0.3548, 0.4998,  0.3837, 0.3565, 0.3430,  2
 3,  0.553,  0.612,  0.698,   0.364,  0.480,  0.612,   63.89,  -0.54, -13.17,   50.37,  -1.57, -21.43,  0.2801, 0.2961, 0.3267,  0.2488, 0.2662, 0.1873,  3
 4,  0.490,  0.507,  0.245,   0.355,  0.422,  0.253,   52.43, -11.83,  35.32,   43.13, -14.63,  22.12,  0.3795, 0.4515, 0.2053,  0.3433, 0.4313, 0.1324,  4
 5,  0.697,  0.592,  0.718,   0.507,  0.502,  0.691,   65.71,  15.77, -13.02,   55.34,  11.45, -25.29,  0.3094, 0.2854, 0.3495,  0.2673, 0.2520, 0.2326,  5
 6,  0.590,  0.810,  0.737,   0.382,  0.749,  0.670,   78.76, -21.88,   3.36,   71.36, -32.72,   1.64,  0.2849, 0.3535, 0.5451,  0.2605, 0.3601, 0.4271,  6
 7,  0.927,  0.508,  0.094,   0.867,  0.481,  0.187,   64.81,  34.93,  67.06,   61.37,  32.88,  55.16,  0.5236, 0.4136, 0.3381,  0.5082, 0.4032, 0.2967,  7
 8,  0.344,  0.393,  0.668,   0.277,  0.356,  0.668,   44.40,  14.89, -39.21,   40.71,  16.91, -45.09,  0.2263, 0.2015, 0.1411,  0.2090, 0.1799, 0.1169,  8
 9,  0.897,  0.307,  0.381,   0.758,  0.322,  0.382,   55.08,  59.33,  21.96,   49.86,  45.93,  13.88,  0.5022, 0.3107, 0.2300,  0.4619, 0.3099, 0.1830,  9
10,  0.484,  0.188,  0.375,   0.361,  0.225,  0.417,   32.24,  38.59, -12.12,   30.15,  24.91, -22.61,  0.3752, 0.2369, 0.0719,  0.2906, 0.2146, 0.0630, 10
11,  0.692,  0.790,  0.057,   0.629,  0.742,  0.242,   76.85, -28.39,  75.36,   72.44, -27.46,  58.47,  0.3962, 0.5199, 0.5128,  0.3770, 0.4964, 0.4431, 11
12,  0.934,  0.665,  0.028,   0.895,  0.630,  0.162,   74.04,  14.51,  76.60,   70.92,  15.58,  66.54,  0.4817, 0.4540, 0.4676,  0.4750, 0.4423, 0.4207, 12
13,  0.067,  0.137,  0.462,   0.155,  0.246,  0.576,   18.45,  26.68, -49.06,   29.62,  21.43, -49.03,  0.1698, 0.1088, 0.0262,  0.1864, 0.1438, 0.0608, 13
14,  0.325,  0.574,  0.253,   0.277,  0.588,  0.285,   54.91, -36.55,  36.61,   55.64, -40.76,  33.27,  0.3206, 0.4943, 0.2285,  0.3038, 0.4887, 0.2356, 14
15,  0.830,  0.136,  0.188,   0.681,  0.199,  0.223,   46.12,  65.71,  39.15,   40.55,  49.97,  25.46,  0.5896, 0.3211, 0.1535,  0.5361, 0.3224, 0.1159, 15
16,  0.932,  0.805,  0.029,   0.928,  0.777,  0.077,   82.88,  -4.30,  82.85,   80.98,  -1.04,  80.03,  0.4454, 0.4831, 0.6194,  0.4497, 0.4767, 0.5844, 16
17,  0.844,  0.320,  0.551,   0.738,  0.329,  0.594,   54.41,  57.68,  -4.87,   51.01,  49.88, -16.93,  0.4186, 0.2613, 0.2236,  0.3672, 0.2396, 0.1927, 17
18,  0.025,  0.509,  0.633,   0.000,  0.540,  0.660,   50.12, -17.83, -25.28,   52.12, -24.61, -26.18,  0.2078, 0.2654, 0.1852,  0.1964, 0.2687, 0.2025, 18
19,  0.911,  0.862,  0.816,   0.960,  0.962,  0.950,   88.42,   2.28,   7.29,   96.54,  -0.69,   1.35,  0.3297, 0.3417, 0.7293,  0.3142, 0.3320, 0.9131, 19
20,  0.835,  0.777,  0.740,   0.786,  0.793,  0.793,   80.89,   3.46,   6.65,   81.27,  -0.61,  -0.24,  0.3316, 0.3403, 0.5826,  0.3113, 0.3290, 0.5897, 20
21,  0.722,  0.651,  0.604,   0.631,  0.639,  0.640,   69.36,   4.52,   8.58,   66.79,  -0.65,  -0.43,  0.3405, 0.3454, 0.3985,  0.3106, 0.3285, 0.3635, 21
22,  0.508,  0.434,  0.379,   0.474,  0.475,  0.477,   48.07,   5.17,  10.48,   50.87,  -0.06,  -0.25,  0.3573, 0.3556, 0.1685,  0.3119, 0.3283, 0.1916, 22
23,  0.277,  0.210,  0.172,   0.324,  0.330,  0.336,   24.01,   6.11,   8.98,   35.68,  -0.22,  -1.21,  0.3807, 0.3608, 0.0410,  0.3076, 0.3246, 0.0884, 23
24,  0.059,  0.025,  0.024,   0.191,  0.194,  0.199,    2.30,   2.39,   0.98,   20.48,   0.05,  -0.97,  0.3931, 0.3333, 0.0025,  0.3077, 0.3235, 0.0311, 24

Zone,Delta-E*ab,Delta-C,Delta-C(corr),Delta-E*94,Delta-C94,Delta-C94(corr),Delta-E*CMC,Delta-C_CMC,Delta-C_CMC(corr)
 1,  24.52,  24.29,  18.17,  13.86,  13.44,  10.05,  15.96,  15.53,  11.62
 2,  12.89,   6.96,   3.02,  11.44,   3.61,   1.82,   9.95,   4.76,   3.00
 3,  15.88,   8.33,  10.23,  14.18,   4.24,   5.21,  13.31,   4.89,   6.00
 4,  16.39,  13.49,   9.25,  12.03,   7.63,   5.93,  12.36,   8.18,   6.13
 5,  16.64,  13.01,  14.30,  13.26,   8.26,   8.38,  13.45,   9.95,  10.03
 6,  13.24,  10.98,  14.07,   8.75,   4.68,   5.85,   7.83,   5.35,   6.78
 7,  12.56,  12.08,   3.73,   4.96,   3.57,   1.89,   6.07,   5.36,   3.32
 8,   7.23,   6.22,  12.29,   4.18,   1.97,   3.88,   4.53,   2.47,   4.88
 9,  16.49,  15.64,   6.85,   7.38,   5.22,   2.65,   8.04,   6.45,   3.17
10,  17.36,  17.23,  14.67,  11.06,  10.86,   9.74,  11.73,  11.44,  10.17
11,  17.49,  16.92,   6.77,   6.66,   5.00,   2.88,   7.08,   6.22,   2.99
12,  10.59,  10.12,   3.35,   4.21,   2.82,   1.49,   4.58,   3.89,   2.02
13,  12.35,   5.25,   7.22,  11.50,   2.70,   2.95,  14.36,   3.09,   3.50
14,   5.42,   5.37,   9.71,   3.06,   2.97,   3.70,   2.75,   2.68,   4.03
15,  21.59,  20.86,  10.14,   8.37,   6.25,   3.42,   9.93,   8.10,   4.38
16,   4.71,   4.31,   9.56,   2.47,   1.58,   2.39,   2.39,   1.95,   3.31
17,  14.76,  14.37,  12.78,   8.36,   7.64,   6.98,   7.87,   7.24,   6.55
18,   7.13,   6.84,  10.42,   4.11,   3.59,   4.58,   4.13,   3.71,   5.10
19,  10.49,   6.64,   5.55,  10.25,   6.25,   5.23,  10.64,   9.07,   7.59
20,   8.01,   8.00,   6.92,   7.82,   7.81,   6.76,  11.79,  11.78,  10.19
21,  10.69,  10.38,   8.98,  10.41,  10.09,   8.73,  15.26,  15.12,  13.08
22,  12.26,  11.93,  10.24,  12.13,  11.80,  10.13,  18.42,  18.24,  15.65
23,  16.74,  12.00,  10.42,  16.39,  11.52,  10.02,  21.29,  16.85,  14.65
24,  18.43,   3.04,   2.69,  18.42,   2.97,   2.63,  29.82,   4.38,   3.87

Zone,Delta-E 00,Delta-C 00,Delta-C 00(corr)
 1,  10.85,  10.45,   8.39
 2,   9.10,   3.64,   2.08
 3,  13.32,   4.85,   6.03
 4,  11.60,   7.11,   5.86
 5,  13.40,   9.88,  10.03
 6,   7.57,   5.31,   6.99
 7,   4.68,   3.67,   2.33
 8,   3.99,   2.15,   4.35
 9,   6.98,   4.74,   2.57
10,   9.73,   9.59,   8.83
11,   5.68,   4.67,   2.90
12,   3.77,   2.95,   1.87
13,   8.72,   3.28,   4.48
14,   2.67,   2.58,   3.61
15,   7.64,   5.65,   3.39
16,   2.29,   1.90,   2.69
17,   7.11,   6.28,   5.96
18,   3.96,   3.42,   4.86
19,   8.08,   6.37,   5.52
20,   7.92,   7.92,   7.03
21,   9.99,   9.78,   8.72
22,  10.72,  10.35,   9.18
23,  14.32,  11.12,   9.96
24,  12.13,   3.75,   3.30

Gamma, 0.675,1/1.48
Color space,sRGB
Reference,X-Rite (default) (new)
ROI WxH pixels,3264,2448
Exposure error (f-stops),-0.20
Middle gray (122) noise RGBY %,  1.06,  1.02,  0.98,  1.03
Avg. noise Z2-5 RGBY %,  0.90,  0.88,  0.91,  0.88
Mean camera chroma %,117
Mean  Delta-C sat corr,9.22
Sigma Delta-C sat corr,10
Max   Delta-C sat corr,18.2
Mean  Delta-C uncorr,11
Sigma Delta-C uncorr,12.2
Max   Delta-C uncorr,24.3
Mean  Delta-E*ab uncorr,13.5
Sigma Delta-E*ab uncorr,14.3
Max   Delta-E*ab uncorr,24.5
Mean  Delta-E94 uncorr,9.39
Sigma Delta-E94 uncorr,10.3
Max   Delta-E94 uncorr,18.4
Mean  Delta-C94 uncorr,6.1
Sigma Delta-C94 uncorr,6.97
Max   Delta-C94 uncorr,13.4
Mean  Delta-C94 sat corr,5.3
Sigma Delta-C94 sat corr,6.02
Max   Delta-C94 sat corr,10.1
Mean  Delta-E_CMC uncorr,11
Sigma Delta-E_CMC uncorr,12.6
Max   Delta-E_CMC uncorr,29.8
Mean  Delta-C_CMC uncorr,7.78
Sigma Delta-C_CMC uncorr,9.09
Max   Delta-C_CMC uncorr,18.2
Mean  Delta-C_CMC sat corr,6.75
Sigma Delta-C_CMC sat corr,7.8
Max   Delta-C_CMC sat corr,15.7
Mean  Delta-E_00 uncorr,8.18
Sigma Delta-E_00 uncorr,8.86
Max   Delta-E_00 uncorr,14.3
Mean  Delta-C_00 uncorr,5.89
Sigma Delta-C_00 uncorr,6.56
Max   Delta-C_00 uncorr,11.1
Mean  Delta-C_00 sat corr,5.46
Sigma Delta-C_00 sat corr,6.05
Max   Delta-C_00 sat corr,10

Exif data
File name    , G:\Users\Administrator\Desktop\zhangliangliang\TP913\Objective-test\CCM-Test\SNR-Noise-test\2018-04-16\Normal-Cap-SNR\A-Cap.jpg
File size    , 2183477 bytes
File date    , 2018:04:16 17:05:57
Camera make  , TP-Link
Camera model , Neffos_X9
Date/Time    , 2018:04:16 17:05:56
Resolution   , 3264 x 2448
Flash used   , No
Focal length ,  2.5mm
Exposure time, 0.020 s  (1/50)
Aperture     , f/2.2
ISO equiv.   , 130
Whitebalance , Auto
Metering Mode, center weight
