Imatest,3.7, Image Sensor Colorcheck
File,CWF-Cap.jpg
Run date,16-Apr-2018 17:10:28

Zone,Gray,Pixel,Pixel/255,Px/255 ideal,Log(exp),Log(px/255),WB Err Deg,WB Err Mired,WB ERR S(HSV)
19, 1,  239.9, 0.9406, 0.9490, -0.050, -0.027,  -218,   5.4, 0.024
20, 2,  223.0, 0.8744, 0.7882, -0.230, -0.058,  -216,   5.3, 0.026
21, 3,  192.8, 0.7559, 0.6314, -0.440, -0.122,  -328,   8.2, 0.037
22, 4,  135.5, 0.5313, 0.4784, -0.700, -0.275,  -596,  15.5, 0.072
23, 5,   71.1, 0.2788, 0.3255, -1.050, -0.555,  -637,  16.7, 0.085
24, 6,    6.8, 0.0265, 0.1922, -1.500, -1.576,  -469,  12.0, 0.256

Noise columns C-F are % normalized to White - Black (1.45 density range = 233.1 pxls).  Columns M-P are % normalized to max pixel level.
A-noise and A-fstop (cols K-L) are mean of RBGY channels.
Zone,Gray,Y-noise%,R-noise%,G-noise%,B-noise%,Y-fstopN,R-fstopN,G-fstopN,B-fstop,A-noise,A-fstop,Y-noise%,R-noise%,G-noise%,B-noise%
 1,,  1.313,  1.351,  1.369,  1.411,,,,,  1.361
 2,,  0.639,  0.678,  0.683,  0.778,,,,,  0.694
 3,,  1.094,  1.117,  1.109,  1.130,,,,,  1.112
 4,,  1.374,  1.420,  1.410,  1.631,,,,,  1.459
 5,,  0.943,  0.955,  0.962,  0.957,,,,,  0.954
 6,,  0.869,  0.888,  0.870,  0.916,,,,,  0.886
 7,,  0.938,  0.959,  0.958,  0.981,,,,,  0.959
 8,,  1.445,  1.484,  1.470,  1.476,,,,,  1.469
 9,,  1.450,  1.463,  1.454,  1.455,,,,,  1.455
10,,  1.709,  1.721,  1.726,  1.720,,,,,  1.719
11,,  0.549,  0.619,  0.654,  0.053,,,,,  0.469
12,,  0.379,  0.484,  0.454,  0.000,,,,,  0.329
13,,  1.584,  1.599,  1.600,  1.667,,,,,  1.613
14,,  1.482,  1.517,  1.508,  1.552,,,,,  1.515
15,,  1.834,  1.874,  1.839,  1.878,,,,,  1.856
16,,  0.205,  0.231,  0.231,  0.000,,,,,  0.167
17,,  1.374,  1.377,  1.383,  1.419,,,,,  1.388
18,,  1.407,  1.448,  1.440,  1.479,,,,,  1.444
19, 1,  0.229,  0.230,  0.230,  0.270, -0.047, -0.047, -0.047, -0.056,  0.240, -0.049,  0.209,  0.210,  0.210,  0.247
20, 2,  0.456,  0.499,  0.471,  0.458,  0.027,  0.029,  0.027,  0.027,  0.471,  0.027,  0.417,  0.456,  0.430,  0.419
21, 3,  0.758,  0.781,  0.775,  0.805,  0.032,  0.033,  0.033,  0.034,  0.780,  0.033,  0.693,  0.714,  0.709,  0.736
22, 4,  1.148,  1.153,  1.153,  1.165,  0.052,  0.052,  0.052,  0.052,  1.155,  0.052,  1.049,  1.054,  1.054,  1.065
23, 5,  1.488,  1.490,  1.489,  1.509,  0.066,  0.066,  0.066,  0.067,  1.494,  0.066,  1.360,  1.362,  1.361,  1.379
24, 6,  0.882,  0.893,  0.881,  0.899,  0.122,  0.123,  0.121,  0.124,  0.889,  0.123,  0.806,  0.816,  0.805,  0.821

S/N (signal/noise) and SNR(dB) (20*log10(signal/noise)) for the 6 gray patches.  A is Average of RBGY channels.
Zone,Gray,Y-S/N,R-S/N,G-S/N,B-S/N,Y-SNR(dB),R-SNR(dB),G-SNR(dB),B-SNR(dB),A-S/N,A-SNR(dB)
19, 1,449.085,450.102,448.204,373.697, 53.047, 53.066, 53.030, 51.450,430.272, 52.648
20, 2,209.621,191.895,203.933,203.999, 46.429, 45.661, 46.190, 46.193,202.362, 46.118
21, 3,109.116,106.522,106.972, 99.495, 40.758, 40.549, 40.585, 39.956,105.526, 40.462
22, 4, 50.640, 51.533, 50.305, 47.333, 34.090, 34.242, 34.032, 33.503, 49.953, 33.967
23, 5, 20.499, 20.821, 20.566, 18.806, 26.235, 26.370, 26.263, 25.486, 20.173, 26.089
24, 6,  3.293,  3.885,  2.937,  3.416, 10.353, 11.788,  9.358, 10.672,  3.383, 10.542

SNR_BW (dB; RGBY), 38.8, 38.8, 38.7, 38.8,White-Black SNR (W-B density difference = 1.45), 20*log10((W-B)/(mid level (Zone 4) noise))

Zone,R-meas,G-meas,B-meas,R-ideal,G-ideal,B-ideal, L-meas,a*-meas,b*-meas,L-ideal,a*-ideal,b*-ideal, x-meas,y-meas,Y-meas, x-ideal,y-ideal,Y-ideal,Zone
 1,  0.564,  0.371,  0.251,   0.447,  0.317,  0.265,   44.80,  16.53,  25.57,   37.54,  12.02,  13.33,  0.4371, 0.3828, 0.1440,  0.3969, 0.3586, 0.0983,  1
 2,  0.918,  0.746,  0.646,   0.764,  0.580,  0.501,   80.27,  12.05,  18.83,   65.20,  14.82,  17.55,  0.3706, 0.3579, 0.5717,  0.3837, 0.3565, 0.3430,  2
 3,  0.540,  0.649,  0.796,   0.364,  0.480,  0.612,   67.07,  -0.67, -22.30,   50.37,  -1.57, -21.43,  0.2607, 0.2758, 0.3673,  0.2488, 0.2662, 0.1873,  3
 4,  0.487,  0.566,  0.229,   0.355,  0.422,  0.253,   56.76, -20.50,  42.31,   43.13, -14.63,  22.12,  0.3708, 0.4778, 0.2468,  0.3433, 0.4313, 0.1324,  4
 5,  0.664,  0.639,  0.827,   0.507,  0.502,  0.691,   69.03,  12.18, -23.56,   55.34,  11.45, -25.29,  0.2795, 0.2666, 0.3939,  0.2673, 0.2520, 0.2326,  5
 6,  0.642,  0.868,  0.806,   0.382,  0.749,  0.670,   84.07, -21.61,   1.80,   71.36, -32.72,   1.64,  0.2839, 0.3485, 0.6420,  0.2605, 0.3601, 0.4271,  6
 7,  0.960,  0.636,  0.027,   0.867,  0.481,  0.187,   73.09,  21.19,  76.34,   61.37,  32.88,  55.16,  0.4951, 0.4434, 0.4529,  0.5082, 0.4032, 0.2967,  7
 8,  0.320,  0.412,  0.779,   0.277,  0.356,  0.668,   46.98,  19.63, -51.51,   40.71,  16.91, -45.09,  0.2070, 0.1766, 0.1600,  0.2090, 0.1799, 0.1169,  8
 9,  0.880,  0.371,  0.389,   0.758,  0.322,  0.382,   57.01,  50.90,  23.22,   49.86,  45.93,  13.88,  0.4837, 0.3246, 0.2494,  0.4619, 0.3099, 0.1830,  9
10,  0.365,  0.178,  0.494,   0.361,  0.225,  0.417,   28.72,  36.97, -37.19,   30.15,  24.91, -22.61,  0.2614, 0.1625, 0.0573,  0.2906, 0.2146, 0.0630, 10
11,  0.761,  0.872,  0.000,   0.629,  0.742,  0.242,   83.92, -31.12,  82.70,   72.44, -27.46,  58.47,  0.3969, 0.5230, 0.6391,  0.3770, 0.4964, 0.4431, 11
12,  0.942,  0.811,  0.000,   0.895,  0.630,  0.162,   83.47,  -3.98,  84.05,   70.92,  15.58,  66.54,  0.4468, 0.4834, 0.6305,  0.4750, 0.4423, 0.4207, 12
13,  0.059,  0.117,  0.605,   0.155,  0.246,  0.576,   21.48,  43.17, -67.02,   29.62,  21.43, -49.03,  0.1593, 0.0824, 0.0337,  0.1864, 0.1438, 0.0608, 13
14,  0.380,  0.677,  0.231,   0.277,  0.588,  0.285,   63.82, -43.91,  49.49,   55.64, -40.76,  33.27,  0.3292, 0.5217, 0.3259,  0.3038, 0.4887, 0.2356, 14
15,  0.795,  0.176,  0.105,   0.681,  0.199,  0.223,   45.10,  59.91,  48.53,   40.55,  49.97,  25.46,  0.6002, 0.3415, 0.1461,  0.5361, 0.3224, 0.1159, 15
16,  0.950,  0.915,  0.000,   0.928,  0.777,  0.077,   90.50, -16.39,  89.18,   80.98,  -1.04,  80.03,  0.4260, 0.4999, 0.7738,  0.4497, 0.4767, 0.5844, 16
17,  0.822,  0.379,  0.687,   0.738,  0.329,  0.594,   57.28,  53.87, -20.89,   51.01,  49.88, -16.93,  0.3589, 0.2354, 0.2521,  0.3672, 0.2396, 0.1927, 17
18,  0.031,  0.559,  0.752,   0.000,  0.540,  0.660,   55.43, -13.80, -34.40,   52.12, -24.61, -26.18,  0.2016, 0.2434, 0.2334,  0.1964, 0.2687, 0.2025, 18
19,  0.945,  0.941,  0.923,   0.960,  0.962,  0.950,   94.77,  -0.50,   2.42,   96.54,  -0.69,   1.35,  0.3163, 0.3339, 0.8708,  0.3142, 0.3320, 0.9131, 19
20,  0.875,  0.878,  0.855,   0.786,  0.793,  0.793,   88.91,  -1.21,   2.74,   81.27,  -0.61,  -0.24,  0.3161, 0.3353, 0.7397,  0.3113, 0.3290, 0.5897, 20
21,  0.760,  0.758,  0.732,   0.631,  0.639,  0.640,   78.04,  -0.95,   3.36,   66.79,  -0.65,  -0.43,  0.3182, 0.3371, 0.5328,  0.3106, 0.3285, 0.3635, 21
22,  0.543,  0.530,  0.504,   0.474,  0.475,  0.477,   56.49,  -0.03,   4.03,   50.87,  -0.06,  -0.25,  0.3235, 0.3405, 0.2440,  0.3119, 0.3283, 0.1916, 22
23,  0.283,  0.280,  0.259,   0.324,  0.330,  0.336,   30.25,  -0.72,   3.28,   35.68,  -0.22,  -1.21,  0.3242, 0.3448, 0.0634,  0.3076, 0.3246, 0.0884, 23
24,  0.032,  0.024,  0.028,   0.191,  0.194,  0.199,    1.79,   0.70,  -0.24,   20.48,   0.05,  -0.97,  0.3229, 0.3115, 0.0020,  0.3077, 0.3235, 0.0311, 24

Zone,Delta-E*ab,Delta-C,Delta-C(corr),Delta-E*94,Delta-C94,Delta-C94(corr),Delta-E*CMC,Delta-C_CMC,Delta-C_CMC(corr)
 1,  14.93,  13.05,   7.33,  10.45,   7.51,   4.47,  12.59,   9.84,   6.63
 2,  15.38,   3.05,   5.67,  15.24,   2.24,   3.17,  12.86,   4.27,   4.75
 3,  16.75,   1.25,   3.66,  16.73,   0.83,   1.92,  15.33,   1.02,   2.24
 4,  25.06,  21.03,  12.03,  16.87,   9.93,   5.95,  17.70,  11.34,   6.68
 5,  13.82,   1.88,   6.57,  13.74,   1.14,   3.00,  12.01,   1.37,   3.50
 6,  16.88,  11.11,  15.36,  13.49,   4.52,   6.22,  11.16,   5.30,   7.32
 7,  26.89,  24.20,  17.03,  15.68,  10.41,   8.67,  20.29,  17.82,  15.27
 8,   9.38,   6.98,   3.86,   6.64,   2.21,   1.22,   7.02,   2.77,   1.53
 9,  12.77,  10.58,   6.94,   8.60,   4.77,   3.76,   8.61,   5.55,   4.26
10,  18.97,  18.92,   8.72,   7.75,   7.61,   3.62,   9.13,   8.96,   4.22
11,  27.06,  24.51,   8.36,  13.34,   6.80,   3.18,  12.45,   8.79,   3.46
12,  29.11,  26.26,  18.81,  16.73,  11.06,   9.28,  17.90,  15.02,  12.58
13,  29.37,  28.22,  14.12,  12.61,   9.63,   6.05,  15.68,  11.90,   7.13
14,  18.44,  16.52,   8.50,  10.54,   6.64,   4.74,   9.99,   7.01,   4.26
15,  25.53,  25.12,  13.67,  10.59,   9.56,   6.90,  13.00,  12.13,   8.62
16,  20.25,  17.87,  14.74,  11.77,   6.92,   6.06,  10.95,   8.44,   7.30
17,   8.42,   5.62,   6.59,   6.58,   2.01,   2.20,   6.15,   2.30,   2.62
18,  13.98,  13.58,  13.60,   9.40,   8.80,   8.22,   9.02,   8.52,   8.12
19,   2.07,   1.08,   0.66,   2.04,   1.03,   0.63,   1.91,   1.48,   0.91
20,   8.22,   3.04,   2.47,   8.19,   2.98,   2.42,   7.16,   4.48,   3.64
21,  11.87,   3.80,   3.13,  11.85,   3.71,   3.06,  10.53,   5.54,   4.56
22,   7.06,   4.28,   3.49,   7.03,   4.24,   3.46,   8.30,   6.54,   5.33
23,   7.07,   4.52,   3.86,   6.99,   4.40,   3.77,   8.80,   6.38,   5.46
24,  18.71,   0.98,   0.93,  18.71,   0.96,   0.91,  30.36,   1.41,   1.34

Zone,Delta-E 00,Delta-C 00,Delta-C 00(corr)
 1,   9.35,   6.73,   4.37
 2,  11.63,   2.77,   4.00
 3,  14.99,   0.83,   2.34
 4,  15.94,   8.26,   5.37
 5,  11.79,   1.56,   3.58
 6,  10.42,   5.23,   7.68
 7,  15.32,  12.11,  10.84
 8,   6.15,   1.97,   1.38
 9,   8.36,   4.67,   3.89
10,   6.73,   6.64,   3.47
11,  10.12,   6.07,   3.16
12,  15.79,  13.01,  11.73
13,   9.57,   7.46,   6.17
14,   9.18,   5.66,   4.10
15,  10.26,   9.38,   7.50
16,  10.17,   8.06,   7.48
17,   6.29,   1.82,   2.19
18,   7.99,   7.33,   7.68
19,   1.47,   1.04,   0.71
20,   5.80,   2.91,   2.37
21,   9.18,   3.56,   2.96
22,   6.71,   3.95,   3.28
23,   6.15,   4.34,   3.74
24,  11.89,   1.20,   1.08

Gamma, 0.616,1/1.62
Color space,sRGB
Reference,X-Rite (default) (new)
ROI WxH pixels,3264,2448
Exposure error (f-stops),0.14
Middle gray (122) noise RGBY %,  1.26,  1.25,  1.23,  1.24
Avg. noise Z2-5 RGBY %,  0.98,  0.97,  0.98,  0.96
Mean camera chroma %,124.4
Mean  Delta-C sat corr,8.34
Sigma Delta-C sat corr,9.84
Max   Delta-C sat corr,18.8
Mean  Delta-C uncorr,12
Sigma Delta-C uncorr,15.1
Max   Delta-C uncorr,28.2
Mean  Delta-E*ab uncorr,16.6
Sigma Delta-E*ab uncorr,18.2
Max   Delta-E*ab uncorr,29.4
Mean  Delta-E94 uncorr,11.3
Sigma Delta-E94 uncorr,12
Max   Delta-E94 uncorr,18.7
Mean  Delta-C94 uncorr,5.41
Sigma Delta-C94 uncorr,6.34
Max   Delta-C94 uncorr,11.1
Mean  Delta-C94 sat corr,4.29
Sigma Delta-C94 sat corr,4.9
Max   Delta-C94 sat corr,9.28
Mean  Delta-E_CMC uncorr,12
Sigma Delta-E_CMC uncorr,13.3
Max   Delta-E_CMC uncorr,30.4
Mean  Delta-C_CMC uncorr,7.01
Sigma Delta-C_CMC uncorr,8.26
Max   Delta-C_CMC uncorr,17.8
Mean  Delta-C_CMC sat corr,5.49
Sigma Delta-C_CMC sat corr,6.42
Max   Delta-C_CMC sat corr,15.3
Mean  Delta-E_00 uncorr,9.64
Sigma Delta-E_00 uncorr,10.2
Max   Delta-E_00 uncorr,15.9
Mean  Delta-C_00 uncorr,5.27
Sigma Delta-C_00 uncorr,6.22
Max   Delta-C_00 uncorr,13
Mean  Delta-C_00 sat corr,4.63
Sigma Delta-C_00 sat corr,5.43
Max   Delta-C_00 sat corr,11.7

Exif data
File name    , G:\Users\Administrator\Desktop\zhangliangliang\TP913\Objective-test\CCM-Test\SNR-Noise-test\2018-04-16\Normal-Cap-SNR\CWF-Cap.jpg
File size    , 2226743 bytes
File date    , 2018:04:16 17:05:36
Camera make  , TP-Link
Camera model , Neffos_X9
Date/Time    , 2018:04:16 17:05:35
Resolution   , 3264 x 2448
Flash used   , No
Focal length ,  2.5mm
Exposure time, 0.040 s  (1/25)
Aperture     , f/2.2
ISO equiv.   , 205
Whitebalance , Auto
Metering Mode, center weight
