Imatest,3.7, Image Sensor Colorcheck
File,D65-Cap.jpg
Run date,16-Apr-2018 17:10:28

Zone,Gray,Pixel,Pixel/255,Px/255 ideal,Log(exp),Log(px/255),WB Err Deg,WB Err Mired,WB ERR S(HSV)
19, 1,  240.8, 0.9443, 0.9490, -0.050, -0.025,  -104,   2.5, 0.012
20, 2,  223.8, 0.8777, 0.7882, -0.230, -0.057,   -87,   2.1, 0.010
21, 3,  194.2, 0.7614, 0.6314, -0.440, -0.118,  -136,   3.3, 0.015
22, 4,  137.0, 0.5371, 0.4784, -0.700, -0.270,  -234,   5.7, 0.028
23, 5,   74.4, 0.2919, 0.3255, -1.050, -0.535,   -44,   1.0, 0.013
24, 6,   10.4, 0.0407, 0.1922, -1.500, -1.391,   509, -11.2, 0.234

Noise columns C-F are % normalized to White - Black (1.45 density range = 230.4 pxls).  Columns M-P are % normalized to max pixel level.
A-noise and A-fstop (cols K-L) are mean of RBGY channels.
Zone,Gray,Y-noise%,R-noise%,G-noise%,B-noise%,Y-fstopN,R-fstopN,G-fstopN,B-fstop,A-noise,A-fstop,Y-noise%,R-noise%,G-noise%,B-noise%
 1,,  1.749,  1.796,  1.775,  1.782,,,,,  1.776
 2,,  0.971,  1.026,  0.989,  1.064,,,,,  1.013
 3,,  1.482,  1.565,  1.486,  1.491,,,,,  1.506
 4,,  1.546,  1.557,  1.553,  1.597,,,,,  1.563
 5,,  1.281,  1.295,  1.287,  1.308,,,,,  1.293
 6,,  1.567,  1.650,  1.563,  1.566,,,,,  1.587
 7,,  1.308,  1.345,  1.320,  1.380,,,,,  1.338
 8,,  1.660,  1.674,  1.680,  1.662,,,,,  1.669
 9,,  1.465,  1.467,  1.471,  1.491,,,,,  1.473
10,,  1.599,  1.618,  1.602,  1.610,,,,,  1.607
11,,  1.143,  1.153,  1.145,  1.223,,,,,  1.166
12,,  1.051,  1.070,  1.056,  1.134,,,,,  1.078
13,,  1.953,  1.964,  1.958,  1.973,,,,,  1.962
14,,  1.806,  1.846,  1.802,  1.825,,,,,  1.820
15,,  1.954,  1.958,  1.962,  1.962,,,,,  1.959
16,,  0.827,  0.828,  0.827,  0.870,,,,,  0.838
17,,  1.488,  1.501,  1.497,  1.515,,,,,  1.500
18,,  0.786,  0.304,  1.046,  1.044,,,,,  0.795
19, 1,  0.241,  0.293,  0.244,  0.236, -0.069, -0.084, -0.070, -0.068,  0.253, -0.073,  0.217,  0.265,  0.221,  0.213
20, 2,  0.458,  0.488,  0.455,  0.453,  0.028,  0.029,  0.027,  0.027,  0.464,  0.028,  0.414,  0.441,  0.411,  0.410
21, 3,  0.788,  0.789,  0.788,  0.788,  0.034,  0.034,  0.034,  0.034,  0.788,  0.034,  0.712,  0.713,  0.712,  0.712
22, 4,  1.256,  1.271,  1.260,  1.257,  0.056,  0.057,  0.056,  0.056,  1.261,  0.057,  1.135,  1.149,  1.139,  1.135
23, 5,  1.545,  1.570,  1.548,  1.552,  0.072,  0.074,  0.073,  0.073,  1.554,  0.073,  1.396,  1.418,  1.399,  1.402
24, 6,  1.136,  1.163,  1.138,  1.148,  0.127,  0.130,  0.128,  0.129,  1.146,  0.129,  1.027,  1.051,  1.028,  1.038

S/N (signal/noise) and SNR(dB) (20*log10(signal/noise)) for the 6 gray patches.  A is Average of RBGY channels.
Zone,Gray,Y-S/N,R-S/N,G-S/N,B-S/N,Y-SNR(dB),R-SNR(dB),G-SNR(dB),B-SNR(dB),A-S/N,A-SNR(dB)
19, 1,434.476,358.045,428.195,439.044, 52.759, 51.079, 52.633, 52.850,414.940, 52.330
20, 2,212.043,199.385,213.546,212.470, 46.528, 45.994, 46.590, 46.546,209.361, 46.415
21, 3,106.993,107.329,106.945,105.842, 40.587, 40.614, 40.583, 40.493,106.777, 40.569
22, 4, 47.310, 47.355, 46.987, 46.579, 33.499, 33.507, 33.440, 33.364, 47.058, 33.452
23, 5, 20.907, 20.750, 20.769, 20.845, 26.406, 26.340, 26.349, 26.380, 20.818, 26.369
24, 6,  3.961,  4.335,  3.580,  4.628, 11.956, 12.740, 11.078, 13.307,  4.126, 12.271

SNR_BW (dB; RGBY), 37.9, 38.0, 38.0, 38.0,White-Black SNR (W-B density difference = 1.45), 20*log10((W-B)/(mid level (Zone 4) noise))

Zone,R-meas,G-meas,B-meas,R-ideal,G-ideal,B-ideal, L-meas,a*-meas,b*-meas,L-ideal,a*-ideal,b*-ideal, x-meas,y-meas,Y-meas, x-ideal,y-ideal,Y-ideal,Zone
 1,  0.431,  0.203,  0.143,   0.447,  0.317,  0.265,   29.07,  24.40,  21.40,   37.54,  12.02,  13.33,  0.4894, 0.3611, 0.0586,  0.3969, 0.3586, 0.0983,  1
 2,  0.829,  0.608,  0.535,   0.764,  0.580,  0.501,   68.89,  18.56,  18.11,   65.20,  14.82,  17.55,  0.3889, 0.3527, 0.3919,  0.3837, 0.3565, 0.3430,  2
 3,  0.374,  0.514,  0.662,   0.364,  0.480,  0.612,   53.59,  -2.32, -23.97,   50.37,  -1.57, -21.43,  0.2438, 0.2625, 0.2159,  0.2488, 0.2662, 0.1873,  3
 4,  0.320,  0.402,  0.137,   0.355,  0.422,  0.253,   40.43, -19.22,  34.62,   43.13, -14.63,  22.12,  0.3651, 0.4917, 0.1151,  0.3433, 0.4313, 0.1324,  4
 5,  0.561,  0.531,  0.730,   0.507,  0.502,  0.691,   58.83,  13.77, -25.42,   55.34,  11.45, -25.29,  0.2731, 0.2535, 0.2685,  0.2673, 0.2520, 0.2326,  5
 6,  0.444,  0.790,  0.721,   0.382,  0.749,  0.670,   75.42, -30.79,   0.51,   71.36, -32.72,   1.64,  0.2638, 0.3543, 0.4895,  0.2605, 0.3601, 0.4271,  6
 7,  0.906,  0.478,  0.134,   0.867,  0.481,  0.187,   62.49,  36.95,  61.92,   61.37,  32.88,  55.16,  0.5250, 0.4047, 0.3098,  0.5082, 0.4032, 0.2967,  7
 8,  0.281,  0.377,  0.709,   0.277,  0.356,  0.668,   42.90,  17.27, -47.76,   40.71,  16.91, -45.09,  0.2061, 0.1780, 0.1309,  0.2090, 0.1799, 0.1169,  8
 9,  0.861,  0.278,  0.360,   0.758,  0.322,  0.382,   52.27,  58.99,  21.21,   49.86,  45.93,  13.88,  0.5068, 0.3082, 0.2038,  0.4619, 0.3099, 0.1830,  9
10,  0.390,  0.113,  0.412,   0.361,  0.225,  0.417,   25.46,  42.08, -29.07,   30.15,  24.91, -22.61,  0.3078, 0.1717, 0.0457,  0.2906, 0.2146, 0.0630, 10
11,  0.673,  0.774,  0.046,   0.629,  0.742,  0.242,   75.32, -28.55,  74.34,   72.44, -27.46,  58.47,  0.3953, 0.5213, 0.4879,  0.3770, 0.4964, 0.4431, 11
12,  0.902,  0.671,  0.062,   0.895,  0.630,  0.162,   73.58,  10.12,  74.76,   70.92,  15.58,  66.54,  0.4719, 0.4594, 0.4605,  0.4750, 0.4423, 0.4207, 12
13,  0.074,  0.146,  0.558,   0.155,  0.246,  0.576,   21.71,  34.66, -59.10,   29.62,  21.43, -49.03,  0.1653, 0.0974, 0.0344,  0.1864, 0.1438, 0.0608, 13
14,  0.287,  0.642,  0.250,   0.277,  0.588,  0.285,   60.11, -46.89,  42.91,   55.64, -40.76,  33.27,  0.3100, 0.5181, 0.2825,  0.3038, 0.4887, 0.2356, 14
15,  0.827,  0.164,  0.175,   0.681,  0.199,  0.223,   46.52,  63.65,  41.42,   40.55,  49.97,  25.46,  0.5888, 0.3279, 0.1565,  0.5361, 0.3224, 0.1159, 15
16,  0.936,  0.850,  0.035,   0.928,  0.777,  0.077,   85.90,  -9.66,  84.97,   80.98,  -1.04,  80.03,  0.4361, 0.4904, 0.6779,  0.4497, 0.4767, 0.5844, 16
17,  0.869,  0.360,  0.677,   0.738,  0.329,  0.594,   58.13,  59.30, -18.09,   51.01,  49.88, -16.93,  0.3768, 0.2379, 0.2609,  0.3672, 0.2396, 0.1927, 17
18,  0.001,  0.612,  0.726,   0.000,  0.540,  0.660,   59.24, -23.65, -24.77,   52.12, -24.61, -26.18,  0.2106, 0.2781, 0.2728,  0.1964, 0.2687, 0.2025, 18
19,  0.947,  0.944,  0.936,   0.960,  0.962,  0.950,   95.07,  -0.10,   1.05,   96.54,  -0.69,   1.35,  0.3144, 0.3310, 0.8778,  0.3142, 0.3320, 0.9131, 19
20,  0.879,  0.878,  0.870,   0.786,  0.793,  0.793,   89.12,  -0.32,   0.98,   81.27,  -0.61,  -0.24,  0.3141, 0.3312, 0.7443,  0.3113, 0.3290, 0.5897, 20
21,  0.765,  0.761,  0.753,   0.631,  0.639,  0.640,   78.48,  -0.02,   1.11,   66.79,  -0.65,  -0.43,  0.3150, 0.3315, 0.5402,  0.3106, 0.3285, 0.3635, 21
22,  0.544,  0.535,  0.529,   0.474,  0.475,  0.477,   57.01,   0.52,   1.14,   50.87,  -0.06,  -0.25,  0.3168, 0.3317, 0.2493,  0.3119, 0.3283, 0.1916, 22
23,  0.294,  0.290,  0.292,   0.324,  0.330,  0.336,   31.59,   0.50,  -0.14,   35.68,  -0.22,  -1.21,  0.3137, 0.3277, 0.0691,  0.3076, 0.3246, 0.0884, 23
24,  0.045,  0.037,  0.048,   0.191,  0.194,  0.199,    2.76,   1.02,  -0.93,   20.48,   0.05,  -0.97,  0.3096, 0.3001, 0.0031,  0.3077, 0.3235, 0.0311, 24

Zone,Delta-E*ab,Delta-C,Delta-C(corr),Delta-E*94,Delta-C94,Delta-C94(corr),Delta-E*CMC,Delta-C_CMC,Delta-C_CMC(corr)
 1,  17.04,  14.78,   9.61,  11.88,   8.33,   5.51,  13.74,  10.24,   7.13
 2,   5.28,   3.78,   2.48,   4.33,   2.27,   1.71,   4.77,   3.74,   3.14
 3,   4.17,   2.65,   1.39,   3.50,   1.38,   0.76,   3.35,   1.60,   0.89
 4,  13.58,  13.31,   7.05,   6.78,   6.22,   3.45,   7.62,   7.14,   3.89
 5,   4.19,   2.33,   3.98,   3.80,   1.52,   2.04,   3.55,   1.83,   2.41
 6,   4.63,   2.23,   7.02,   4.20,   1.07,   2.88,   3.34,   1.15,   3.37
 7,   7.97,   7.89,   3.78,   2.32,   2.03,   0.97,   2.91,   2.76,   1.32
 8,   3.47,   2.70,   5.62,   2.36,   0.90,   1.79,   2.51,   1.12,   2.25
 9,  15.16,  14.97,   5.24,   5.49,   4.94,   2.09,   6.51,   6.13,   2.48
10,  18.93,  18.34,  10.50,   9.15,   7.86,   4.96,  10.77,   9.06,   5.56
11,  16.17,  15.91,   5.22,   5.48,   4.67,   2.48,   6.24,   5.83,   2.46
12,  10.22,   9.87,   8.10,   4.64,   3.81,   3.34,   5.58,   5.18,   4.54
13,  18.41,  16.63,   7.64,   9.89,   5.93,   3.82,  12.29,   7.25,   4.39
14,  12.27,  11.43,   3.06,   5.82,   3.73,   1.68,   5.93,   4.48,   1.52
15,  21.85,  21.02,   9.84,   9.02,   6.76,   4.04,  10.66,   8.70,   5.10
16,  11.08,   9.93,  11.30,   6.31,   3.95,   3.90,   5.99,   4.79,   4.88
17,  11.86,   9.49,   1.78,   7.70,   2.94,   0.93,   7.44,   3.67,   0.89
18,   7.32,   1.71,   7.24,   7.15,   0.67,   2.77,   6.44,   0.79,   3.30
19,   1.61,   0.67,   0.77,   1.60,   0.64,   0.73,   1.36,   0.92,   1.06
20,   7.95,   1.26,   1.12,   7.95,   1.24,   1.11,   6.03,   1.86,   1.65
21,  11.81,   1.66,   1.50,  11.80,   1.64,   1.48,   9.62,   2.43,   2.19
22,   6.32,   1.50,   1.30,   6.32,   1.49,   1.29,   6.04,   2.29,   1.98
23,   4.29,   1.29,   1.26,   4.27,   1.25,   1.22,   4.91,   1.82,   1.78
24,  17.74,   0.97,   0.83,  17.74,   0.95,   0.81,  28.78,   1.39,   1.19

Zone,Delta-E 00,Delta-C 00,Delta-C 00(corr)
 1,  10.19,   7.57,   5.55
 2,   3.92,   2.57,   1.93
 3,   3.55,   1.57,   0.66
 4,   6.01,   5.50,   3.22
 5,   3.62,   1.69,   2.66
 6,   3.21,   1.08,   3.15
 7,   2.17,   1.94,   0.99
 8,   2.29,   1.17,   1.59
 9,   5.09,   4.49,   2.04
10,   7.65,   6.78,   4.57
11,   4.86,   4.37,   2.52
12,   4.96,   4.54,   4.20
13,   7.60,   4.89,   4.50
14,   5.27,   3.38,   1.44
15,   8.38,   6.30,   4.19
16,   5.77,   4.74,   4.76
17,   7.31,   2.72,   0.79
18,   6.70,   0.67,   2.97
19,   1.26,   0.91,   0.99
20,   5.31,   1.27,   1.16
21,   8.94,   1.76,   1.62
22,   6.12,   1.59,   1.38
23,   3.63,   1.50,   1.43
24,  11.36,   1.41,   1.20

Gamma, 0.594,1/1.68
Color space,sRGB
Reference,X-Rite (default) (new)
ROI WxH pixels,3264,2448
Exposure error (f-stops),0.18
Middle gray (122) noise RGBY %,  1.37,  1.35,  1.34,  1.35
Avg. noise Z2-5 RGBY %,  1.03,  1.01,  1.01,  1.01
Mean camera chroma %,119.3
Mean  Delta-C sat corr,4.9
Sigma Delta-C sat corr,5.94
Max   Delta-C sat corr,11.3
Mean  Delta-C uncorr,7.76
Sigma Delta-C uncorr,10.1
Max   Delta-C uncorr,21
Mean  Delta-E*ab uncorr,10.6
Sigma Delta-E*ab uncorr,12
Max   Delta-E*ab uncorr,21.8
Mean  Delta-E94 uncorr,6.65
Sigma Delta-E94 uncorr,7.55
Max   Delta-E94 uncorr,17.7
Mean  Delta-C94 uncorr,3.17
Sigma Delta-C94 uncorr,3.95
Max   Delta-C94 uncorr,8.33
Mean  Delta-C94 sat corr,2.32
Sigma Delta-C94 sat corr,2.69
Max   Delta-C94 sat corr,5.51
Mean  Delta-E_CMC uncorr,7.35
Sigma Delta-E_CMC uncorr,9.13
Max   Delta-E_CMC uncorr,28.8
Mean  Delta-C_CMC uncorr,4.01
Sigma Delta-C_CMC uncorr,4.88
Max   Delta-C_CMC uncorr,10.2
Mean  Delta-C_CMC sat corr,2.89
Sigma Delta-C_CMC sat corr,3.32
Max   Delta-C_CMC sat corr,7.13
Mean  Delta-E_00 uncorr,5.63
Sigma Delta-E_00 uncorr,6.16
Max   Delta-E_00 uncorr,11.4
Mean  Delta-C_00 uncorr,3.1
Sigma Delta-C_00 uncorr,3.7
Max   Delta-C_00 uncorr,7.57
Mean  Delta-C_00 sat corr,2.48
Sigma Delta-C_00 sat corr,2.87
Max   Delta-C_00 sat corr,5.55

Exif data
File name    , G:\Users\Administrator\Desktop\zhangliangliang\TP913\Objective-test\CCM-Test\SNR-Noise-test\2018-04-16\Normal-Cap-SNR\D65-Cap.jpg
File size    , 2411420 bytes
File date    , 2018:04:16 17:04:52
Camera make  , TP-Link
Camera model , Neffos_X9
Date/Time    , 2018:04:16 17:04:52
Resolution   , 3264 x 2448
Flash used   , No
Focal length ,  2.5mm
Exposure time, 0.040 s  (1/25)
Aperture     , f/2.2
ISO equiv.   , 240
Whitebalance , Auto
Metering Mode, center weight
