Imatest,3.7, Image Sensor Colorcheck
File,TL84-Cap.jpg
Run date,16-Apr-2018 17:10:28

Zone,Gray,Pixel,Pixel/255,Px/255 ideal,Log(exp),Log(px/255),WB Err Deg,WB Err Mired,WB ERR S(HSV)
19, 1,  243.2, 0.9538, 0.9490, -0.050, -0.021,  -141,   3.4, 0.016
20, 2,  227.9, 0.8937, 0.7882, -0.230, -0.049,  -131,   3.2, 0.015
21, 3,  198.0, 0.7767, 0.6314, -0.440, -0.110,  -254,   6.2, 0.029
22, 4,  140.6, 0.5515, 0.4784, -0.700, -0.258,  -430,  10.9, 0.051
23, 5,   76.0, 0.2979, 0.3255, -1.050, -0.526,  -567,  14.7, 0.073
24, 6,    7.6, 0.0299, 0.1922, -1.500, -1.524,  1790, -33.2, 0.523

Noise columns C-F are % normalized to White - Black (1.45 density range = 235.6 pxls).  Columns M-P are % normalized to max pixel level.
A-noise and A-fstop (cols K-L) are mean of RBGY channels.
Zone,Gray,Y-noise%,R-noise%,G-noise%,B-noise%,Y-fstopN,R-fstopN,G-fstopN,B-fstop,A-noise,A-fstop,Y-noise%,R-noise%,G-noise%,B-noise%
 1,,  1.318,  1.371,  1.346,  1.351,,,,,  1.347
 2,,  0.645,  0.674,  0.687,  0.691,,,,,  0.674
 3,,  1.075,  1.109,  1.078,  1.091,,,,,  1.088
 4,,  1.382,  1.447,  1.384,  1.490,,,,,  1.426
 5,,  0.862,  0.864,  0.866,  0.868,,,,,  0.865
 6,,  0.897,  0.911,  0.907,  0.921,,,,,  0.909
 7,,  1.022,  0.773,  1.197,  1.219,,,,,  1.053
 8,,  1.394,  1.421,  1.410,  1.416,,,,,  1.410
 9,,  1.547,  1.553,  1.556,  1.590,,,,,  1.562
10,,  1.664,  1.669,  1.676,  1.689,,,,,  1.674
11,,  0.555,  0.632,  0.631,  0.099,,,,,  0.479
12,,  0.398,  0.455,  0.493,  0.014,,,,,  0.340
13,,  1.627,  1.665,  1.640,  1.691,,,,,  1.656
14,,  1.460,  1.482,  1.479,  1.527,,,,,  1.487
15,,  1.974,  1.973,  1.983,  1.986,,,,,  1.979
16,,  0.327,  0.411,  0.381,  0.000,,,,,  0.280
17,,  1.503,  1.523,  1.521,  1.516,,,,,  1.516
18,,  0.840,  0.547,  1.049,  1.126,,,,,  0.891
19, 1,  0.202,  0.202,  0.202,  0.380, -0.030, -0.030, -0.030, -0.057,  0.246, -0.037,  0.187,  0.186,  0.187,  0.351
20, 2,  0.296,  0.294,  0.294,  0.371,  0.018,  0.018,  0.018,  0.022,  0.314,  0.019,  0.274,  0.271,  0.271,  0.343
21, 3,  0.671,  0.711,  0.686,  0.673,  0.028,  0.030,  0.029,  0.028,  0.685,  0.029,  0.620,  0.657,  0.634,  0.621
22, 4,  1.150,  1.159,  1.152,  1.152,  0.052,  0.052,  0.052,  0.052,  1.153,  0.052,  1.062,  1.071,  1.064,  1.064
23, 5,  1.452,  1.476,  1.469,  1.466,  0.062,  0.063,  0.063,  0.063,  1.466,  0.063,  1.342,  1.364,  1.357,  1.355
24, 6,  0.862,  0.864,  0.861,  0.870,  0.107,  0.107,  0.107,  0.108,  0.864,  0.107,  0.796,  0.798,  0.795,  0.804

S/N (signal/noise) and SNR(dB) (20*log10(signal/noise)) for the 6 gray patches.  A is Average of RBGY channels.
Zone,Gray,Y-S/N,R-S/N,G-S/N,B-S/N,Y-SNR(dB),R-SNR(dB),G-SNR(dB),B-SNR(dB),A-S/N,A-SNR(dB)
19, 1,511.008,513.809,511.097,268.842, 54.169, 54.216, 54.170, 48.590,451.189, 52.786
20, 2,326.585,330.644,329.200,257.875, 50.280, 50.387, 50.349, 48.228,311.076, 49.811
21, 3,125.317,119.365,122.314,122.545, 41.960, 41.538, 41.750, 41.766,122.385, 41.753
22, 4, 51.928, 52.697, 51.490, 50.339, 34.308, 34.436, 34.234, 34.038, 51.613, 34.254
23, 5, 22.198, 22.604, 21.721, 21.099, 26.926, 27.084, 26.738, 26.485, 21.906, 26.808
24, 6,  3.757,  5.147,  2.697,  5.567, 11.498, 14.232,  8.619, 14.913,  4.292, 12.315

SNR_BW (dB; RGBY), 38.7, 38.8, 38.8, 38.8,White-Black SNR (W-B density difference = 1.45), 20*log10((W-B)/(mid level (Zone 4) noise))

Zone,R-meas,G-meas,B-meas,R-ideal,G-ideal,B-ideal, L-meas,a*-meas,b*-meas,L-ideal,a*-ideal,b*-ideal, x-meas,y-meas,Y-meas, x-ideal,y-ideal,Y-ideal,Zone
 1,  0.577,  0.339,  0.244,   0.447,  0.317,  0.265,   43.20,  22.57,  24.68,   37.54,  12.02,  13.33,  0.4539, 0.3703, 0.1329,  0.3969, 0.3586, 0.0983,  1
 2,  0.942,  0.738,  0.657,   0.764,  0.580,  0.501,   80.41,  15.85,  17.55,   65.20,  14.82,  17.55,  0.3741, 0.3518, 0.5742,  0.3837, 0.3565, 0.3430,  2
 3,  0.522,  0.663,  0.804,   0.364,  0.480,  0.612,   67.88,  -3.53, -22.19,   50.37,  -1.57, -21.43,  0.2568, 0.2783, 0.3781,  0.2488, 0.2662, 0.1873,  3
 4,  0.463,  0.570,  0.226,   0.355,  0.422,  0.253,   56.57, -23.50,  42.32,   43.13, -14.63,  22.12,  0.3637, 0.4837, 0.2449,  0.3433, 0.4313, 0.1324,  4
 5,  0.688,  0.664,  0.837,   0.507,  0.502,  0.691,   71.21,  11.09, -21.47,   55.34,  11.45, -25.29,  0.2832, 0.2731, 0.4250,  0.2673, 0.2520, 0.2326,  5
 6,  0.600,  0.888,  0.829,   0.382,  0.749,  0.670,   85.09, -26.07,   0.09,   71.36, -32.72,   1.64,  0.2746, 0.3476, 0.6618,  0.2605, 0.3601, 0.4271,  6
 7,  0.994,  0.550,  0.074,   0.867,  0.481,  0.187,   69.39,  36.27,  72.56,   61.37,  32.88,  55.16,  0.5246, 0.4163, 0.3988,  0.5082, 0.4032, 0.2967,  7
 8,  0.296,  0.437,  0.806,   0.277,  0.356,  0.668,   48.77,  16.98, -52.65,   40.71,  16.91, -45.09,  0.2025, 0.1785, 0.1741,  0.2090, 0.1799, 0.1169,  8
 9,  0.928,  0.381,  0.403,   0.758,  0.322,  0.382,   59.46,  54.28,  24.81,   49.86,  45.93,  13.88,  0.4891, 0.3239, 0.2753,  0.4619, 0.3099, 0.1830,  9
10,  0.405,  0.180,  0.497,   0.361,  0.225,  0.417,   30.31,  39.56, -35.10,   30.15,  24.91, -22.61,  0.2779, 0.1700, 0.0636,  0.2906, 0.2146, 0.0630, 10
11,  0.758,  0.888,  0.000,   0.629,  0.742,  0.242,   85.02, -33.38,  83.50,   72.44, -27.46,  58.47,  0.3934, 0.5258, 0.6606,  0.3770, 0.4964, 0.4431, 11
12,  0.955,  0.813,  0.000,   0.895,  0.630,  0.162,   83.93,  -2.96,  84.51,   70.92,  15.58,  66.54,  0.4487, 0.4819, 0.6393,  0.4750, 0.4423, 0.4207, 12
13,  0.044,  0.153,  0.630,   0.155,  0.246,  0.576,   23.96,  39.94, -66.70,   29.62,  21.43, -49.03,  0.1604, 0.0903, 0.0409,  0.1864, 0.1438, 0.0608, 13
14,  0.348,  0.695,  0.260,   0.277,  0.588,  0.285,   65.02, -47.60,  47.52,   55.64, -40.76,  33.27,  0.3181, 0.5194, 0.3408,  0.3038, 0.4887, 0.2356, 14
15,  0.876,  0.167,  0.086,   0.681,  0.199,  0.223,   48.89,  66.45,  55.24,   40.55,  49.97,  25.46,  0.6122, 0.3398, 0.1750,  0.5361, 0.3224, 0.1159, 15
16,  0.969,  0.913,  0.000,   0.928,  0.777,  0.077,   90.78, -14.13,  89.57,   80.98,  -1.04,  80.03,  0.4300, 0.4968, 0.7801,  0.4497, 0.4767, 0.5844, 16
17,  0.887,  0.398,  0.696,   0.738,  0.329,  0.594,   60.61,  56.92, -16.95,   51.01,  49.88, -16.93,  0.3740, 0.2442, 0.2881,  0.3672, 0.2396, 0.1927, 17
18,  0.003,  0.622,  0.792,   0.000,  0.540,  0.660,   60.76, -19.15, -31.91,   52.12, -24.61, -26.18,  0.2050, 0.2580, 0.2897,  0.1964, 0.2687, 0.2025, 18
19,  0.958,  0.954,  0.943,   0.960,  0.962,  0.950,   95.92,  -0.15,   1.45,   96.54,  -0.69,   1.35,  0.3150, 0.3318, 0.8982,  0.3142, 0.3320, 0.9131, 19
20,  0.897,  0.893,  0.884,   0.786,  0.793,  0.793,   90.54,  -0.07,   1.24,   81.27,  -0.61,  -0.24,  0.3149, 0.3315, 0.7747,  0.3113, 0.3290, 0.5897, 20
21,  0.784,  0.776,  0.761,   0.631,  0.639,  0.640,   79.87,   0.08,   2.06,   66.79,  -0.65,  -0.43,  0.3171, 0.3334, 0.5645,  0.3106, 0.3285, 0.3635, 21
22,  0.564,  0.548,  0.535,   0.474,  0.475,  0.477,   58.40,   0.93,   2.23,   50.87,  -0.06,  -0.25,  0.3205, 0.3343, 0.2638,  0.3119, 0.3283, 0.1916, 22
23,  0.308,  0.295,  0.286,   0.324,  0.330,  0.336,   32.20,   0.94,   1.85,   35.68,  -0.22,  -1.21,  0.3232, 0.3355, 0.0717,  0.3076, 0.3246, 0.0884, 23
24,  0.041,  0.021,  0.045,   0.191,  0.194,  0.199,    1.90,   2.14,  -1.81,   20.48,   0.05,  -0.97,  0.3084, 0.2571, 0.0021,  0.3077, 0.3235, 0.0311, 24

Zone,Delta-E*ab,Delta-C,Delta-C(corr),Delta-E*94,Delta-C94,Delta-C94(corr),Delta-E*CMC,Delta-C_CMC,Delta-C_CMC(corr)
 1,  16.50,  15.50,   8.38,  10.27,   8.58,   4.64,  11.64,   9.91,   5.36
 2,  15.25,   1.03,   4.41,  15.23,   0.66,   2.20,  12.30,   1.17,   2.65
 3,  17.64,   2.10,   4.14,  17.58,   1.49,   2.30,  16.14,   1.85,   2.72
 4,  25.84,  22.06,  11.84,  16.86,  10.17,   5.56,  17.81,  11.73,   6.37
 5,  16.33,   3.84,   8.82,  15.98,   1.86,   3.98,  14.01,   2.18,   4.63
 6,  15.33,   6.83,  12.30,  14.02,   2.85,   5.01,  11.11,   3.30,   5.88
 7,  19.46,  17.74,   4.76,   9.52,   5.13,   2.42,  10.10,   7.61,   4.26
 8,  11.06,   7.57,   5.08,   8.49,   2.66,   1.91,   8.92,   3.27,   2.33
 9,  16.78,  13.75,   6.50,  11.12,   5.61,   3.75,  11.05,   6.63,   4.22
10,  19.25,  19.25,   7.99,   7.66,   7.66,   3.19,   9.05,   9.05,   3.76
11,  28.64,  25.72,   7.35,  14.34,   6.87,   2.57,  13.27,   9.10,   2.91
12,  28.91,  25.82,  17.91,  16.84,  10.69,   8.81,  17.68,  14.53,  11.94
13,  26.21,  25.60,  10.60,  10.17,   8.45,   4.63,  12.70,  10.53,   5.44
14,  18.38,  15.80,   5.28,  10.86,   5.47,   2.95,  10.32,   6.32,   2.65
15,  35.04,  34.03,  18.17,  14.62,  12.02,   8.18,  17.58,  15.33,  10.26
16,  18.93,  16.20,  13.88,  11.50,   6.01,   5.27,  10.31,   7.40,   6.45
17,  11.91,   7.05,   6.22,   9.88,   2.32,   2.05,   9.17,   2.79,   2.46
18,  11.72,   7.92,   9.60,  10.03,   5.10,   5.17,   9.20,   4.95,   5.30
19,   0.82,   0.55,   0.61,   0.81,   0.54,   0.59,   0.87,   0.76,   0.84
20,   9.40,   1.57,   1.34,   9.39,   1.55,   1.32,   7.16,   2.32,   1.97
21,  13.34,   2.59,   2.17,  13.33,   2.55,   2.14,  11.08,   3.78,   3.17
22,   7.98,   2.67,   2.15,   7.98,   2.64,   2.14,   7.97,   4.08,   3.29
23,   4.78,   3.27,   2.83,   4.73,   3.20,   2.78,   6.04,   4.63,   4.01
24,  18.71,   2.26,   1.70,  18.70,   2.18,   1.65,  30.32,   3.24,   2.44

Zone,Delta-E 00,Delta-C 00,Delta-C 00(corr)
 1,   8.93,   7.39,   4.43
 2,  11.42,   0.79,   2.38
 3,  15.73,   1.99,   2.18
 4,  15.81,   8.33,   4.98
 5,  13.55,   2.34,   4.68
 6,  10.16,   3.10,   5.89
 7,   8.31,   5.10,   3.00
 8,   8.46,   3.71,   1.30
 9,  10.59,   5.34,   3.85
10,   6.53,   6.53,   2.97
11,  10.70,   6.04,   2.53
12,  15.58,  12.53,  11.17
13,   7.55,   6.26,   4.82
14,   9.50,   4.78,   2.54
15,  13.62,  11.13,   8.58
16,   9.46,   6.98,   6.50
17,   9.23,   2.14,   2.04
18,   9.05,   4.23,   4.99
19,   0.87,   0.79,   0.85
20,   6.26,   1.64,   1.44
21,  10.08,   2.62,   2.24
22,   7.67,   2.74,   2.23
23,   4.41,   3.38,   2.93
24,  12.15,   3.02,   2.37

Gamma, 0.593,1/1.69
Color space,sRGB
Reference,X-Rite (default) (new)
ROI WxH pixels,3264,2448
Exposure error (f-stops),0.23
Middle gray (122) noise RGBY %,  1.32,  1.28,  1.24,  1.27
Avg. noise Z2-5 RGBY %,  0.91,  0.90,  0.92,  0.89
Mean camera chroma %,127.1
Mean  Delta-C sat corr,7.25
Sigma Delta-C sat corr,8.71
Max   Delta-C sat corr,18.2
Mean  Delta-C uncorr,11.7
Sigma Delta-C uncorr,15.2
Max   Delta-C uncorr,34
Mean  Delta-E*ab uncorr,17
Sigma Delta-E*ab uncorr,18.7
Max   Delta-E*ab uncorr,35
Mean  Delta-E94 uncorr,11.7
Sigma Delta-E94 uncorr,12.4
Max   Delta-E94 uncorr,18.7
Mean  Delta-C94 uncorr,4.84
Sigma Delta-C94 uncorr,5.85
Max   Delta-C94 uncorr,12
Mean  Delta-C94 sat corr,3.55
Sigma Delta-C94 sat corr,4.08
Max   Delta-C94 sat corr,8.81
Mean  Delta-E_CMC uncorr,11.9
Sigma Delta-E_CMC uncorr,13.1
Max   Delta-E_CMC uncorr,30.3
Mean  Delta-C_CMC uncorr,6.1
Sigma Delta-C_CMC uncorr,7.32
Max   Delta-C_CMC uncorr,15.3
Mean  Delta-C_CMC sat corr,4.39
Sigma Delta-C_CMC sat corr,5.05
Max   Delta-C_CMC sat corr,11.9
Mean  Delta-E_00 uncorr,9.82
Sigma Delta-E_00 uncorr,10.4
Max   Delta-E_00 uncorr,15.8
Mean  Delta-C_00 uncorr,4.7
Sigma Delta-C_00 uncorr,5.57
Max   Delta-C_00 uncorr,12.5
Mean  Delta-C_00 sat corr,3.79
Sigma Delta-C_00 sat corr,4.47
Max   Delta-C_00 sat corr,11.2

Exif data
File name    , G:\Users\Administrator\Desktop\zhangliangliang\TP913\Objective-test\CCM-Test\SNR-Noise-test\2018-04-16\Normal-Cap-SNR\TL84-Cap.jpg
File size    , 2180610 bytes
File date    , 2018:04:16 17:05:16
Camera make  , TP-Link
Camera model , Neffos_X9
Date/Time    , 2018:04:16 17:05:16
Resolution   , 3264 x 2448
Flash used   , No
Focal length ,  2.5mm
Exposure time, 0.040 s  (1/25)
Aperture     , f/2.2
ISO equiv.   , 193
Whitebalance , Auto
Metering Mode, center weight
